time (s)	coil I (A)	last det (V)	int current (uC)
7410.762962	3.267089	129.199219	3.906250
7410.764964	3.266874	129.199219	3.906250
7410.766965	3.266700	35.933704	0.074525
7411.795510	3.267081	-7.226562	-425.000000
7411.797511	3.267686	-7.226562	-425.000000
7411.801509	3.267167	-7.226562	-425.000000
7411.803511	3.267086	35.937950	0.126596
7412.835531	3.265122	129.199219	2.734375
7412.837532	3.267292	129.199219	2.734375
7412.839532	3.267290	129.199219	2.734375
7412.841532	3.267105	35.938152	0.091721
7413.879574	3.266790	-7.812500	-423.437500
7413.881577	3.267489	-7.812500	-423.437500
7413.883577	3.267123	-7.812500	-423.437500
7413.885576	3.267114	35.938259	0.085746
7414.929618	1.758055	127.539062	0.878906
7414.931621	3.267247	127.539062	0.878906
7414.935618	3.267246	127.539062	0.878906
7414.937621	3.267110	127.539062	0.878906
7414.939621	3.267209	35.939293	0.073571
7415.957659	3.264995	-12.402344	-428.222656
7415.959662	3.267284	-12.402344	-428.222656
7415.961661	3.267366	-12.402344	-428.222656
7415.963661	3.266984	35.936825	0.077826
7417.009725	3.266336	130.566406	1.757812
7417.011726	3.267171	130.566406	1.757812
7417.013727	3.266866	130.566406	1.757812
7417.015727	3.266779	35.934570	0.072269
7418.036724	3.264217	-13.378906	-430.468750
7418.038738	3.266841	-13.378906	-430.468750
7418.040740	3.267064	-13.378906	-430.468750
7418.042740	3.266690	-13.378906	-430.468750
7418.044741	3.266703	35.933731	0.076594
7419.098773	3.267139	132.519531	0.000000
7419.100775	3.266819	132.519531	0.000000
7419.102774	3.266709	35.933800	0.081807
7420.124852	3.265707	-14.355469	-433.984375
7420.126855	3.267174	-14.355469	-433.984375
7420.128854	3.266911	-14.355469	-433.984375
7420.130856	3.266672	35.933395	0.077195
7421.180931	3.264292	130.664062	-2.343750
7421.182934	3.266882	130.664062	-2.343750
7421.184943	3.267032	130.664062	-2.343750
7421.186940	3.266775	35.934525	0.071888
7422.207012	3.267578	-9.960937	-428.515625
7422.209012	3.267329	-9.960937	-428.515625
7422.211014	3.267007	35.937080	0.071836
7423.259956	3.264077	133.691406	-2.148437
7423.261956	3.267272	133.691406	-2.148437
7423.263956	3.267524	133.691406	-2.148437
7423.265956	3.267232	133.691406	-2.148437
7423.267956	3.267182	35.939003	0.086333
7424.283996	3.265421	-10.937500	-431.152344
7424.285997	3.267348	-10.937500	-431.152344
7424.287997	3.267326	-10.937500	-431.152344
7424.289999	3.267082	35.937904	0.082933
7425.344036	3.265850	133.203125	-3.417969
7425.346036	3.267536	133.203125	-3.417969
7425.348037	3.267247	133.203125	-3.417969
7425.352036	3.267091	35.938000	0.083537
7426.372071	3.265406	-8.886719	-427.246094
7426.374077	3.267106	-8.886719	-427.246094
7426.376081	3.266941	-8.886719	-427.246094
7426.378081	3.266703	35.933731	0.076072
7427.426124	3.263778	135.644531	-1.562500
7427.428126	3.266822	135.644531	-1.562500
7427.430126	3.267220	135.644531	-1.562500
7427.432126	3.266825	135.644531	-1.562500
7427.434126	3.266768	35.934448	0.077606
7428.454162	3.267152	-8.105469	-423.925781
7428.456164	3.266845	-8.105469	-423.925781
7428.458165	3.266655	35.933208	0.073850
7429.512200	3.267183	135.742187	-1.660156
7429.514203	3.266829	135.742187	-1.660156
7429.516201	3.266786	35.934643	0.133661
7430.542155	3.266422	-9.082031	-426.171875
7430.544156	3.267182	-9.082031	-426.171875
7430.546157	3.266811	-9.082031	-426.171875
7430.548156	3.266716	35.933872	0.076998
7431.594193	3.267405	132.519531	-1.855469
7431.596195	3.267097	132.519531	-1.855469
7431.598194	3.266877	35.935642	0.083123
7432.624259	3.266070	-8.984375	-426.660156
7432.626259	3.267515	-8.984375	-426.660156
7432.628259	3.267245	-8.984375	-426.660156
7432.630259	3.267072	35.937798	0.077982
7433.674754	3.267083	134.765625	0.097656
7433.676755	3.267244	134.765625	0.097656
7433.678756	3.266961	35.936573	0.493030
7434.707282	3.267134	-3.515625	-416.015625
7434.709285	3.266824	-3.515625	-416.015625
7434.711285	3.266676	35.933437	0.074134
7435.753311	3.266576	135.644531	0.878906
7435.757310	3.266993	135.644531	0.878906
7435.759311	3.266801	135.644531	0.878906
7435.761311	3.266798	35.934776	0.081142
7436.789883	3.267114	-6.738281	-422.363281
7436.791884	3.267195	-6.738281	-422.363281
7436.793882	3.266889	35.935776	0.075666
7437.837976	3.265733	134.570312	-0.488281
7437.839978	3.267122	134.570312	-0.488281
7437.841978	3.266835	134.570312	-0.488281
7437.843979	3.266742	35.934166	0.084423
7438.874011	3.265410	-6.933594	-423.339844
7438.876014	3.267230	-6.933594	-423.339844
7438.878012	3.267083	-6.933594	-423.339844
7438.880012	3.266842	35.935265	0.076372
7439.922088	3.267102	136.718750	0.781250
7439.924086	3.267245	136.718750	0.781250
7439.926085	3.266847	136.718750	0.781250
7439.928086	3.266868	35.935547	0.078339
7440.959040	3.267351	-6.933594	-422.656250
7440.961041	3.266887	-6.933594	-422.656250
7440.963041	3.266821	35.935032	0.073142
7442.001061	3.266337	135.546875	-0.292969
7442.003064	3.267192	135.546875	-0.292969
7442.005064	3.266843	135.546875	-0.292969
7442.007063	3.266716	35.933872	0.082135
7443.037123	3.266813	-5.664062	-423.632812
7443.041124	3.267104	-5.664062	-423.632812
7443.047124	3.267019	-5.664062	-423.632812
7443.049126	3.266959	35.936550	0.078416
7444.087161	3.267295	137.304687	-0.683594
7444.089163	3.266989	137.304687	-0.683594
7444.091163	3.266824	35.935059	0.081701
7445.121174	3.266985	-4.687500	-421.582031
7445.123175	3.267444	-4.687500	-421.582031
7445.125175	3.266993	-4.687500	-421.582031
7445.129173	3.266985	35.936832	0.218071
7446.169268	3.266375	137.597656	-1.562500
7446.171270	3.267238	137.597656	-1.562500
7446.173283	3.266857	137.597656	-1.562500
7446.175289	3.266806	35.934864	0.084916
7447.203350	3.266637	-4.785156	-421.679687
7447.205351	3.267074	-4.785156	-421.679687
7447.207352	3.266728	-4.785156	-421.679687
7447.209352	3.266738	35.934120	0.126273
7448.251918	3.265537	136.914062	-2.832031
7448.253919	3.267195	136.914062	-2.832031
7448.255918	3.267019	136.914062	-2.832031
7448.257919	3.266940	35.936337	0.081033
7449.284012	3.265249	-4.199219	-421.582031
7449.286012	3.267053	-4.199219	-421.582031
7449.288014	3.266879	-4.199219	-421.582031
7449.290017	3.266677	35.933445	0.077026
7450.334592	3.265435	138.574219	-4.199219
7450.336593	3.267412	138.574219	-4.199219
7450.340593	3.267023	138.574219	-4.199219
7450.342593	3.266996	35.936954	0.084806
7451.366654	3.266552	-5.566406	-425.292969
7451.368655	3.267238	-5.566406	-425.292969
7451.370656	3.266854	-5.566406	-425.292969
7451.372655	3.266869	35.935555	0.078802
7452.420723	3.265920	137.792969	-5.273437
7452.422723	3.267526	137.792969	-5.273437
7452.424724	3.267216	137.792969	-5.273437
7452.426726	3.267031	35.937340	0.086008
7453.450742	3.267503	-4.101562	-424.902344
7453.452742	3.267193	-4.101562	-424.902344
7453.454743	3.267040	35.937435	0.078115
7454.507287	3.267144	137.792969	-5.859375
7454.511287	3.266679	137.792969	-5.859375
7454.513290	3.266651	35.933163	0.077949
7455.531308	3.267088	-5.957031	-429.589844
7455.533310	3.267434	-5.957031	-429.589844
7455.535316	3.266998	-5.957031	-429.589844
7455.537321	3.266963	35.936592	0.078370
7456.587870	3.266421	139.257812	-4.980469
7456.589873	3.267375	139.257812	-4.980469
7456.591872	3.267026	139.257812	-4.980469
7456.593878	3.266988	35.936867	0.080241
7457.613939	3.266719	-8.886719	-433.203125
7457.615942	3.267166	-8.886719	-433.203125
7457.617941	3.266840	-8.886719	-433.203125
7457.619942	3.266672	35.933395	0.193084
7458.667997	3.266110	138.769531	-4.882812
7458.669999	3.267151	138.769531	-4.882812
7458.673998	3.266737	138.769531	-4.882812
7458.675999	3.266703	35.933731	0.083446
7459.694066	3.266849	-8.691406	-430.761719
7459.696068	3.267257	-8.691406	-430.761719
7459.698069	3.267050	-8.691406	-430.761719
7459.700068	3.267009	35.937096	0.080461
7460.752122	3.266482	137.792969	-4.589844
7460.754122	3.267242	137.792969	-4.589844
7460.760120	3.266688	137.792969	-4.589844
7460.762124	3.266736	35.934093	0.081026
7461.778187	3.266737	-9.375000	-429.882812
7461.780189	3.267467	-9.375000	-429.882812
7461.784188	3.267056	-9.375000	-429.882812
7461.786189	3.266980	35.936779	0.082964
7462.836219	3.266871	139.453125	-3.417969
7462.840217	3.267099	139.453125	-3.417969
7462.842219	3.267012	139.453125	-3.417969
7462.846219	3.267035	35.937389	0.106358
7463.867205	3.267682	-11.035156	-431.445312
7463.869206	3.267301	-11.035156	-431.445312
7463.871207	3.267141	35.938549	0.078777
7464.913235	3.265931	139.746094	-2.832031
7464.915235	3.265940	139.746094	-2.832031
7464.917237	3.266804	139.746094	-2.832031
7464.919235	3.266813	35.934944	0.082523
7465.947755	3.264594	-6.835937	-425.585937
7465.949757	3.267008	-6.835937	-425.585937
7465.951757	3.267103	-6.835937	-425.585937
7465.953758	3.266741	35.934147	0.079978
7466.995820	3.264626	139.062500	-2.636719
7466.997822	3.264792	139.062500	-2.636719
7466.999822	3.267221	139.062500	-2.636719
7467.001821	3.266923	35.936150	0.078526
7468.031879	3.265949	-3.613281	-423.437500
7468.033880	3.267106	-3.613281	-423.437500
7468.035880	3.266749	-3.613281	-423.437500
7468.037881	3.266675	35.933426	0.080006
7469.077992	3.265580	140.332031	-2.148437
7469.081992	3.267265	140.332031	-2.148437
7469.083995	3.266908	140.332031	-2.148437
7469.085994	3.266881	35.935688	0.083148
7470.118082	3.267179	1.464844	-416.894531
7470.120084	3.266941	1.464844	-416.894531
7470.122083	3.266697	35.933670	0.080714
7471.160680	3.266614	141.113281	-1.562500
7471.162683	3.267309	141.113281	-1.562500
7471.164682	3.266865	141.113281	-1.562500
7471.166682	3.266755	35.934307	0.080270
7472.202748	3.266822	-0.781250	-421.191406
7472.204751	3.266637	35.933010	0.080687
7473.242827	3.264871	141.796875	-1.464844
7473.244828	3.267137	141.796875	-1.464844
7473.246828	3.267110	141.796875	-1.464844
7473.248828	3.266880	35.935680	0.081976
7474.284891	3.267065	0.976562	-418.066406
7474.286892	3.266964	0.976562	-418.066406
7474.288892	3.266801	35.934811	0.077194
7475.323408	3.266310	145.019531	0.292969
7475.325416	3.267286	145.019531	0.292969
7475.327413	3.266893	145.019531	0.292969
7475.329412	3.266842	35.935265	0.082588
7476.363469	3.266591	1.855469	-415.820312
7476.365470	3.267477	1.855469	-415.820312
7476.367470	3.267004	1.855469	-415.820312
7476.369471	3.267042	35.937462	0.079612
7477.411984	3.267653	141.406250	-2.050781
7477.413986	3.267249	141.406250	-2.050781
7477.415987	3.267101	35.938107	0.082256
7478.448079	3.267092	1.464844	-416.308594
7478.450081	3.266842	1.464844	-416.308594
7478.454078	3.266669	35.933357	0.080485
7479.492667	3.267063	144.433594	-1.562500
7479.494667	3.267051	144.433594	-1.562500
7479.496668	3.266793	35.934723	0.083990
7480.531216	3.265298	-1.269531	-420.507812
7480.533219	3.267503	-1.269531	-420.507812
7480.535218	3.267356	-1.269531	-420.507812
7480.537218	3.267195	35.939144	0.077431
7481.575285	3.266466	145.996094	-1.171875
7481.577288	3.267098	145.996094	-1.171875
7481.579288	3.266707	145.996094	-1.171875
7481.581287	3.266634	35.932968	0.083223
7482.611892	3.263082	2.050781	-414.355469
7482.613896	3.266587	2.050781	-414.355469
7482.615896	3.267003	2.050781	-414.355469
7482.617893	3.266646	2.050781	-414.355469
7482.619895	3.266646	35.933109	0.077838
7483.656460	3.265961	143.750000	-2.246094
7483.658460	3.267363	143.750000	-2.246094
7483.660460	3.267375	143.750000	-2.246094
7483.662460	3.266772	35.934494	0.084197
7484.692478	3.264260	0.878906	-417.480469
7484.694487	3.266914	0.878906	-417.480469
7484.696491	3.267059	0.878906	-417.480469
7484.698490	3.266748	0.878906	-417.480469
7484.700490	3.266674	35.933411	0.082347
7485.744528	3.266968	146.679687	-0.976562
7485.746530	3.266855	35.935406	0.079390
7486.777542	3.265885	0.585937	-418.652344
7486.779550	3.267375	0.585937	-418.652344
7486.781555	3.267119	0.585937	-418.652344
7486.783557	3.266912	35.936035	0.079924
7487.821616	3.265381	146.484375	-1.464844
7487.823617	3.267473	146.484375	-1.464844
7487.825617	3.267438	146.484375	-1.464844
7487.827616	3.267055	35.937603	0.086029
7488.860126	3.264240	2.050781	-416.308594
7488.862135	3.266936	2.050781	-416.308594
7488.864132	3.267118	2.050781	-416.308594
7488.866133	3.266700	2.050781	-416.308594
7488.868132	3.266694	35.933632	0.081074
7489.904207	3.264538	144.628906	-2.636719
7489.906210	3.267106	144.628906	-2.636719
7489.908209	3.267102	144.628906	-2.636719
7489.910209	3.266840	35.935246	0.083666
7490.944269	3.265011	1.269531	-417.480469
7490.946272	3.267064	1.269531	-417.480469
7490.948270	3.267065	1.269531	-417.480469
7490.950272	3.266772	35.934494	0.082029
7491.988325	3.265121	145.996094	-2.734375
7491.990327	3.267035	145.996094	-2.734375
7491.992327	3.266916	145.996094	-2.734375
7491.994327	3.266719	35.933907	0.082850
7493.026863	3.265750	1.074219	-416.601562
7493.028864	3.267331	1.074219	-416.601562
7493.030865	3.267139	1.074219	-416.601562
7493.032864	3.266940	35.936337	0.080278
7494.070955	3.264675	145.703125	-4.101562
7494.072958	3.267022	145.703125	-4.101562
7494.074957	3.266951	145.703125	-4.101562
7494.076957	3.266664	35.933304	0.082410
7495.106995	3.263876	-0.781250	-417.089844
7495.108997	3.266707	-0.781250	-417.089844
7495.111000	3.266926	-0.781250	-417.089844
7495.112998	3.266561	-0.781250	-417.089844
7495.114999	3.266569	35.932259	0.083322
7496.154992	3.265941	146.191406	-4.589844
7496.156995	3.267189	146.191406	-4.589844
7496.158993	3.266898	146.191406	-4.589844
7496.160995	3.266671	35.933384	0.083483
7497.191517	3.267344	-3.613281	-419.238281
7497.193518	3.267096	-3.613281	-419.238281
7497.195518	3.266934	35.936272	0.082958
7498.241568	3.266126	146.679687	-5.273437
7498.243571	3.267224	146.679687	-5.273437
7498.245575	3.266857	146.679687	-5.273437
7498.247578	3.266669	35.933357	0.079826
7499.272589	3.266013	-5.664062	-421.582031
7499.274591	3.267176	-5.664062	-421.582031
7499.276589	3.266820	-5.664062	-421.582031
7499.278590	3.266637	35.933002	0.081933
7500.328680	3.267390	146.582031	-6.347656
7500.330683	3.266966	146.582031	-6.347656
7500.332679	3.266893	35.935822	0.075777
7501.353245	3.265694	-7.031250	-424.609375
7501.355244	3.267021	-7.031250	-424.609375
7501.357244	3.266726	-7.031250	-424.609375
7501.359244	3.266558	35.932144	0.080144
7502.409314	3.266881	148.925781	-6.933594
7502.411315	3.266959	148.925781	-6.933594
7502.413315	3.266713	35.933846	0.082048
7503.434321	3.267403	-6.347656	-426.269531
7503.436321	3.267454	-6.347656	-426.269531
7503.438322	3.267280	35.940083	0.082119
7504.496399	3.266815	146.289062	-8.789062
7504.498401	3.266807	146.289062	-8.789062
7504.500403	3.266753	35.934288	0.082142
7505.516490	3.263992	-6.250000	-428.027344
7505.518491	3.266824	-6.250000	-428.027344
7505.520501	3.267039	-6.250000	-428.027344
7505.522498	3.266757	-6.250000	-428.027344
7505.524501	3.266690	35.933586	0.078416
7506.576522	3.266676	150.000000	-8.398437
7506.578526	3.267016	150.000000	-8.398437
7506.580527	3.266610	150.000000	-8.398437
7506.584525	3.266535	35.931885	0.213862
7507.599508	3.266283	-4.882812	-427.343750
7507.601512	3.267252	-4.882812	-427.343750
7507.603512	3.266832	-4.882812	-427.343750
7507.605512	3.266689	35.933578	0.079840
7508.657620	3.266506	151.367187	-8.886719
7508.659619	3.267592	151.367187	-8.886719
7508.661620	3.267245	151.367187	-8.886719
7508.663619	3.267073	35.937809	0.085245
7509.682216	3.264314	-2.734375	-424.707031
7509.684218	3.266916	-2.734375	-424.707031
7509.686218	3.267012	-2.734375	-424.707031
7509.688219	3.266737	35.934109	0.080597
7510.740301	3.265906	148.632812	-10.546875
7510.742303	3.267188	148.632812	-10.546875
7510.744309	3.266859	148.632812	-10.546875
7510.746310	3.266677	35.933445	0.083661
7511.766335	3.267093	-0.488281	-420.410156
7511.768337	3.267342	-0.488281	-420.410156
7511.770337	3.266977	-0.488281	-420.410156
7511.772337	3.266968	35.936653	0.081155
7512.822920	3.267370	149.609375	-10.546875
7512.824922	3.267157	149.609375	-10.546875
7512.826922	3.266899	35.935894	0.084260
7513.851000	3.264624	-3.222656	-423.437500
7513.853001	3.267031	-3.222656	-423.437500
7513.855002	3.267118	-3.222656	-423.437500
7513.857003	3.266722	35.933941	0.080090
7514.905072	3.266977	152.929687	-9.179687
7514.907073	3.267524	152.929687	-9.179687
7514.909073	3.267193	152.929687	-9.179687
7514.911073	3.267161	35.938774	0.089981
7515.933067	3.265425	-2.343750	-420.996094
7515.935069	3.267292	-2.343750	-420.996094
7515.937068	3.267168	-2.343750	-420.996094
7515.939070	3.266985	35.936832	0.080693
7516.987138	3.267123	152.050781	-9.570312
7516.989138	3.267486	152.050781	-9.570312
7516.991139	3.267019	152.050781	-9.570312
7516.993138	3.266961	35.936565	0.302453
7518.015703	3.264979	0.292969	-416.503906
7518.017707	3.267240	0.292969	-416.503906
7518.019707	3.267250	0.292969	-416.503906
7518.021706	3.266850	35.935352	0.081517
7519.069756	3.266187	153.222656	-8.593750
7519.071758	3.267116	153.222656	-8.593750
7519.073758	3.266768	153.222656	-8.593750
7519.075758	3.266662	35.933285	0.082152
7520.099784	3.265497	2.246094	-412.500000
7520.101785	3.267272	2.246094	-412.500000
7520.103786	3.267127	2.246094	-412.500000
7520.105787	3.266921	35.936131	0.080836
7521.154366	3.267382	149.707031	-9.570312
7521.156369	3.267057	149.707031	-9.570312
7521.158369	3.266888	35.935768	0.083492
7522.186391	3.267696	1.464844	-413.378906
7522.188393	3.267225	1.464844	-413.378906
7522.190395	3.267145	35.938595	0.078162
7523.236981	3.267349	154.394531	-8.398437
7523.238983	3.266998	154.394531	-8.398437
7523.240984	3.266825	35.935078	0.083395
7524.269047	3.267151	-1.757812	-417.285156
7524.271050	3.266932	-1.757812	-417.285156
7524.273050	3.266737	35.934101	0.078554
7525.317093	3.266848	152.050781	-9.472656
7525.319095	3.267273	152.050781	-9.472656
7525.321094	3.266973	152.050781	-9.472656
7525.323095	3.266953	35.936485	0.102348
7526.347146	3.265209	1.074219	-413.183594
7526.349148	3.267024	1.074219	-413.183594
7526.351147	3.266875	1.074219	-413.183594
7526.353147	3.266679	35.933472	0.082064
7527.401197	3.267019	154.101562	-9.375000
7527.403198	3.267367	154.101562	-9.375000
7527.405199	3.266971	154.101562	-9.375000
7527.407197	3.266955	35.936504	0.086382
7528.433770	3.266676	-0.781250	-415.917969
7528.435772	3.267034	-0.781250	-415.917969
7528.437774	3.266659	-0.781250	-415.917969
7528.439772	3.266622	35.932842	0.183791
7529.481829	3.264471	153.417969	-9.960937
7529.483831	3.266906	153.417969	-9.960937
7529.485831	3.266977	153.417969	-9.960937
7529.487833	3.266661	35.933266	0.088343
7530.515873	3.266662	-0.292969	-416.210937
7530.517877	3.267284	-0.292969	-416.210937
7530.519876	3.266932	-0.292969	-416.210937
7530.521876	3.266835	35.935181	0.078654
7531.565936	3.266091	154.199219	-10.937500
7531.567938	3.267286	154.199219	-10.937500
7531.571936	3.266803	154.199219	-10.937500
7531.573938	3.266789	35.934677	0.085595
7532.596035	3.267056	1.855469	-413.476562
7532.598038	3.266874	1.855469	-413.476562
7532.600037	3.266720	35.933914	0.080482
7533.648584	3.265008	154.980469	-10.937500
7533.650586	3.267249	154.980469	-10.937500
7533.652588	3.267236	154.980469	-10.937500
7533.654586	3.267002	35.937019	0.086844
7534.680676	3.267023	1.074219	-415.039062
7534.682679	3.266778	1.074219	-415.039062
7534.684679	3.266687	35.933552	0.078789
7535.735262	3.267131	157.031250	-10.742187
7535.737265	3.266725	157.031250	-10.742187
7535.739266	3.266731	35.934040	0.087074
7536.760272	3.267346	0.781250	-416.210937
7536.764267	3.267127	0.781250	-416.210937
7536.766271	3.267140	0.781250	-416.210937
7536.768270	3.267095	35.938046	0.452705
7537.816833	3.266322	157.031250	-11.425781
7537.818837	3.267124	157.031250	-11.425781
7537.820835	3.266806	157.031250	-11.425781
7537.822835	3.266691	35.933605	0.083683
7538.844870	3.267044	1.757812	-414.550781
7538.846870	3.267045	1.757812	-414.550781
7538.848870	3.266771	35.934483	0.078225
7539.900933	3.267225	155.371094	-12.011719
7539.902935	3.266997	155.371094	-12.011719
7539.906934	3.266853	35.935379	0.149926
7540.927013	3.267128	0.585937	-415.429687
7540.929016	3.267648	0.585937	-415.429687
7540.931015	3.267234	0.585937	-415.429687
7540.933015	3.267087	35.937958	0.080061
7541.981567	3.266159	155.761719	-11.718750
7541.983570	3.267288	155.761719	-11.718750
7541.985570	3.267085	155.761719	-11.718750
7541.987571	3.266883	35.935715	0.085358
7543.005597	3.265389	-1.269531	-415.429687
7543.007600	3.267243	-1.269531	-415.429687
7543.009601	3.267006	-1.269531	-415.429687
7543.011600	3.266894	35.935829	0.083397
7544.065669	3.266840	153.906250	-12.011719
7544.067671	3.267143	153.906250	-12.011719
7544.069674	3.266932	153.906250	-12.011719
7544.071671	3.266778	35.934563	0.202275
7545.093708	3.267164	-1.171875	-412.890625
7545.095711	3.266832	-1.171875	-412.890625
7545.097712	3.266804	35.934837	0.079691
7546.148334	3.266922	156.054687	-10.546875
7546.150332	3.267035	156.054687	-10.546875
7546.152330	3.266721	35.933933	0.084745
7547.174874	3.266155	-4.785156	-413.964844
7547.176874	3.267247	-4.785156	-413.964844
7547.178874	3.266893	-4.785156	-413.964844
7547.180873	3.266791	35.934696	0.081850
7548.228924	3.267624	155.566406	-10.351562
7548.230926	3.267486	155.566406	-10.351562
7548.232926	3.267216	35.939377	0.087471
7549.261017	3.267222	-2.539062	-408.691406
7549.263018	3.266791	-2.539062	-408.691406
7549.265018	3.266721	35.933926	0.083929
7550.313052	3.267528	155.957031	-10.058594
7550.315054	3.267130	155.957031	-10.058594
7550.317053	3.266998	35.936974	0.082864
7551.341621	3.267164	0.195312	-403.613281
7551.343625	3.267234	0.195312	-403.613281
7551.345622	3.266952	35.936466	0.086207
7552.392192	3.264297	154.785156	-10.156250
7552.394201	3.266914	154.785156	-10.156250
7552.396205	3.267047	154.785156	-10.156250
7552.398206	3.266743	35.934174	0.085121
7553.428250	3.266824	-0.292969	-404.003906
7553.430251	3.266989	-0.292969	-404.003906
7553.432252	3.266757	-0.292969	-404.003906
7553.434252	3.266681	35.933491	0.337413
7554.474259	3.263814	154.589844	-10.742187
7554.476261	3.267094	154.589844	-10.742187
7554.478261	3.267384	154.589844	-10.742187
7554.480261	3.267140	154.589844	-10.742187
7554.482260	3.267131	35.938438	0.085699
7555.510288	3.265844	2.148437	-401.464844
7555.512290	3.267522	2.148437	-401.464844
7555.514290	3.267314	2.148437	-401.464844
7555.516290	3.267077	35.937851	0.084178
7556.558306	3.266839	158.105469	-9.179687
7556.560309	3.267329	158.105469	-9.179687
7556.562309	3.267090	158.105469	-9.179687
7556.564308	3.267001	35.937008	0.083433
7557.593281	2.113381	2.832031	-400.976562
7557.595283	3.267142	2.832031	-400.976562
7557.597284	3.267162	2.832031	-400.976562
7557.599282	3.266889	35.935776	0.084328
7558.637308	3.265036	156.640625	-9.765625
7558.639310	3.267196	156.640625	-9.765625
7558.641310	3.267247	156.640625	-9.765625
7558.643311	3.266760	35.934357	0.085942
7559.679340	3.267346	2.929687	-401.269531
7559.681342	3.266971	2.929687	-401.269531
7559.683342	3.266786	35.934643	0.081718
7560.719370	3.264572	158.496094	-8.691406
7560.721375	3.267120	158.496094	-8.691406
7560.723378	3.267315	158.496094	-8.691406
7560.725380	3.266961	35.936573	0.086026
7561.761408	3.267203	8.398437	-394.531250
7561.763410	3.267267	8.398437	-394.531250
7561.765410	3.266940	35.936344	0.083253
7562.805453	3.267214	159.667969	-8.105469
7562.807454	3.267270	159.667969	-8.105469
7562.809455	3.267169	35.938862	0.085943
7563.842029	3.266948	5.175781	-398.339844
7563.844030	3.266993	5.175781	-398.339844
7563.846031	3.266729	35.934021	0.086498
7564.888089	3.267153	157.324219	-9.277344
7564.890091	3.267263	157.324219	-9.277344
7564.892091	3.266909	35.935997	0.525373
7565.926127	3.266391	8.203125	-394.531250
7565.928128	3.267092	8.203125	-394.531250
7565.930129	3.266732	8.203125	-394.531250
7565.932133	3.266695	35.933651	0.079223
7566.968197	3.266197	159.667969	-8.691406
7566.970197	3.267351	159.667969	-8.691406
7566.972199	3.267015	159.667969	-8.691406
7566.974199	3.266869	35.935555	0.087109
7568.008271	3.265551	5.078125	-397.265625
7568.010274	3.267170	5.078125	-397.265625
7568.012272	3.266951	5.078125	-397.265625
7568.014275	3.266744	35.934181	0.082464
7569.052435	3.266931	159.765625	-8.886719
7569.054436	3.267653	159.765625	-8.886719
7569.056437	3.267259	159.765625	-8.886719
7569.058437	3.267131	35.938446	0.084097
7570.090530	3.264344	7.421875	-394.433594
7570.094529	3.267088	7.421875	-394.433594
7570.096531	3.266756	7.421875	-394.433594
7570.098531	3.266716	35.933880	0.083280
7571.132570	3.263509	162.988281	-8.691406
7571.134570	3.267123	162.988281	-8.691406
7571.136570	3.267576	162.988281	-8.691406
7571.138569	3.267208	162.988281	-8.691406
7571.140570	3.267130	35.938427	0.087192
7572.173141	3.266505	6.835937	-394.335937
7572.175142	3.267110	6.835937	-394.335937
7572.177142	3.266738	6.835937	-394.335937
7572.179142	3.266729	35.934021	0.082209
7573.217207	3.266119	160.058594	-9.570312
7573.219209	3.267270	160.058594	-9.570312
7573.221211	3.266922	160.058594	-9.570312
7573.223208	3.266729	35.934021	0.085984
7574.255237	3.263028	5.957031	-394.433594
7574.257239	3.266742	5.957031	-394.433594
7574.259241	3.267177	5.957031	-394.433594
7574.261239	3.266802	5.957031	-394.433594
7574.263241	3.266764	35.934402	0.084799
7575.299254	3.265663	160.742187	-9.765625
7575.301254	3.267017	160.742187	-9.765625
7575.303256	3.266803	160.742187	-9.765625
7575.305254	3.266609	35.932701	0.086859
7576.337322	3.265254	6.347656	-392.578125
7576.339325	3.267134	6.347656	-392.578125
7576.341324	3.266950	6.347656	-392.578125
7576.343322	3.266797	35.934769	0.085949
7577.383412	3.266799	161.230469	-10.156250
7577.385414	3.267450	161.230469	-10.156250
7577.387412	3.266894	161.230469	-10.156250
7577.389413	3.266845	35.935299	0.098114
7578.423478	3.267188	3.515625	-393.261719
7578.425481	3.267182	3.515625	-393.261719
7578.427478	3.266906	35.935970	0.082191
7579.469549	3.267228	159.667969	-11.230469
7579.471552	3.266863	159.667969	-11.230469
7579.473550	3.266759	35.934349	0.334117
7580.503611	3.264569	4.101562	-391.308594
7580.505615	3.267102	4.101562	-391.308594
7580.509613	3.266848	4.101562	-391.308594
7580.511615	3.266840	35.935246	0.083706
7581.551645	3.266987	159.472656	-12.109375
7581.553646	3.267081	159.472656	-12.109375
7581.557645	3.266689	35.933578	0.525658
7582.585694	3.263963	1.269531	-392.871094
7582.587697	3.267051	1.269531	-392.871094
7582.589697	3.267300	1.269531	-392.871094
7582.591696	3.267019	1.269531	-392.871094
7582.593698	3.266940	35.936337	0.087218
7583.633746	3.265117	163.574219	-11.425781
7583.635748	3.267107	163.574219	-11.425781
7583.637748	3.266968	163.574219	-11.425781
7583.639750	3.266772	35.934494	0.083619
7584.669729	3.267462	3.222656	-390.136719
7584.671733	3.267029	3.222656	-390.136719
7584.673731	3.266899	35.935894	0.167994
7585.720679	3.267215	159.667969	-13.183594
7585.722679	3.266827	159.667969	-13.183594
7585.724679	3.266766	35.934422	0.081034
7586.749171	3.264916	1.171875	-391.796875
7586.751171	3.266984	1.171875	-391.796875
7586.753172	3.266909	1.171875	-391.796875
7586.755172	3.266690	35.933594	0.084347
7587.801759	3.266699	163.183594	-12.792969
7587.803760	3.267524	163.183594	-12.792969
7587.805760	3.267146	163.183594	-12.792969
7587.807760	3.267061	35.937664	0.082029
7588.828282	3.264758	-0.976562	-395.117187
7588.830284	3.267133	-0.976562	-395.117187
7588.834286	3.266869	-0.976562	-395.117187
7588.836285	3.266956	35.936512	0.087156
7589.888330	3.266721	164.062500	-12.988281
7589.890332	3.266653	164.062500	-12.988281
7589.892332	3.266599	35.932587	0.084048
7590.912879	3.266417	0.976562	-394.726562
7590.914881	3.267010	0.976562	-394.726562
7590.916880	3.266700	0.976562	-394.726562
7590.920878	3.266654	35.933197	0.082239
7591.967491	3.266738	164.062500	-13.769531
7591.969492	3.267050	164.062500	-13.769531
7591.971492	3.266738	164.062500	-13.769531
7591.973494	3.266633	35.932957	0.299580
7592.995546	3.267052	-0.292969	-397.851562
7592.997552	3.267013	-0.292969	-397.851562
7593.001559	3.266631	35.932941	0.085067
7594.051616	3.265411	162.792969	-15.136719
7594.053618	3.265551	162.792969	-15.136719
7594.057616	3.266644	162.792969	-15.136719
7594.059619	3.266598	35.932579	0.084872
7595.077708	3.265923	-0.390625	-399.316406
7595.079708	3.267502	-0.390625	-399.316406
7595.081708	3.267297	-0.390625	-399.316406
7595.083707	3.267101	35.938107	0.083736
7596.133805	3.265304	163.769531	-15.527344
7596.135807	3.267044	163.769531	-15.527344
7596.137806	3.266932	163.769531	-15.527344
7596.139807	3.266749	35.934235	0.086987
7597.161868	3.267094	2.050781	-398.046875
7597.163872	3.266829	2.050781	-398.046875
7597.165871	3.266693	35.933624	0.083902
7598.215902	3.265895	165.234375	-15.917969
7598.217906	3.267280	165.234375	-15.917969
7598.219907	3.266981	165.234375	-15.917969
7598.221904	3.266902	35.935921	0.088235
7599.245928	3.266977	3.320312	-396.972656
7599.247930	3.266785	3.320312	-396.972656
7599.249930	3.266670	35.933376	0.084052
7600.300540	3.267048	168.164062	-15.820312
7600.302543	3.267482	168.164062	-15.820312
7600.304541	3.267187	168.164062	-15.820312
7600.306541	3.267064	35.937698	0.087397
7601.329135	3.267166	3.613281	-396.191406
7601.331135	3.266838	3.613281	-396.191406
7601.333135	3.266726	35.933987	0.126352
7602.381691	3.264107	164.941406	-16.992187
7602.383692	3.267164	164.941406	-16.992187
7602.385693	3.267297	164.941406	-16.992187
7602.387692	3.267046	164.941406	-16.992187
7602.389693	3.267010	35.937107	0.088050
7603.407745	3.263905	3.906250	-395.312500
7603.409746	3.266857	3.906250	-395.312500
7603.413744	3.266808	3.906250	-395.312500
7603.415746	3.266745	3.906250	-395.312500
7603.417745	3.266788	35.934669	0.085047
7604.464272	3.264643	169.433594	-16.113281
7604.466274	3.266994	169.433594	-16.113281
7604.468273	3.266966	169.433594	-16.113281
7604.470274	3.266705	35.933754	0.089113
7605.492322	3.265773	1.953125	-396.875000
7605.494323	3.267341	1.953125	-396.875000
7605.496324	3.267043	1.953125	-396.875000
7605.498324	3.266885	35.935734	0.083707
7606.548345	3.266644	166.601562	-16.699219
7606.550348	3.267232	166.601562	-16.699219
7606.552348	3.266903	166.601562	-16.699219
7606.554348	3.266895	35.935848	0.087748
7607.576429	3.266783	1.855469	-395.996094
7607.578431	3.266822	1.855469	-395.996094
7607.580431	3.267131	1.855469	-395.996094
7607.582430	3.267032	35.937355	0.080938
7608.632442	3.267338	170.996094	-16.015625
7608.634446	3.267080	170.996094	-16.015625
7608.636445	3.266811	35.934925	0.086705
7609.657412	3.265563	3.808594	-393.261719
7609.659411	3.267093	3.808594	-393.261719
7609.663412	3.266673	3.808594	-393.261719
7609.665413	3.266634	35.932976	0.084280
7610.713431	3.266579	168.261719	-16.503906
7610.715433	3.267164	168.261719	-16.503906
7610.717433	3.266848	168.261719	-16.503906
7610.719433	3.266790	35.934685	0.087795
7611.741464	3.266280	2.929687	-392.773437
7611.743466	3.267579	2.929687	-392.773437
7611.745466	3.267311	2.929687	-392.773437
7611.747465	3.267172	35.938889	0.082190
7612.795514	3.266024	167.968750	-16.601562
7612.797515	3.267588	167.968750	-16.601562
7612.799514	3.267342	167.968750	-16.601562
7612.801515	3.267171	35.938877	0.088792
7613.825553	3.267365	3.027344	-392.285156
7613.829555	3.267100	3.027344	-392.285156
7613.831555	3.267056	35.937611	0.084487
7614.879599	3.266800	167.968750	-17.089844
7614.881601	3.266964	167.968750	-17.089844
7614.883600	3.266732	167.968750	-17.089844
7614.885602	3.266716	35.933880	0.087567
7615.905682	3.266175	4.785156	-389.550781
7615.907682	3.267435	4.785156	-389.550781
7615.909683	3.267143	4.785156	-389.550781
7615.913681	3.266963	35.936592	0.083461
7616.959728	3.265058	170.605469	-17.187500
7616.961729	3.267189	170.605469	-17.187500
7616.963729	3.267065	170.605469	-17.187500
7616.965728	3.266988	35.936867	0.090441
7617.989746	3.266667	5.273437	-389.062500
7617.991747	3.267546	5.273437	-389.062500
7617.993748	3.267201	5.273437	-389.062500
7617.995747	3.267081	35.937893	0.081270
7619.044338	3.266581	169.042969	-17.480469
7619.046339	3.267125	169.042969	-17.480469
7619.048340	3.266743	169.042969	-17.480469
7619.050340	3.266821	35.935032	0.088795
7620.070393	3.264450	3.417969	-390.234375
7620.072400	3.267061	3.417969	-390.234375
7620.074404	3.267272	3.417969	-390.234375
7620.076404	3.266810	35.934910	0.083732
7621.126484	3.266322	171.289062	-17.089844
7621.128484	3.267064	171.289062	-17.089844
7621.130485	3.266762	171.289062	-17.089844
7621.132487	3.266645	35.933090	0.088857
7622.154514	3.266484	5.859375	-387.011719
7622.156515	3.267185	5.859375	-387.011719
7622.158516	3.266742	5.859375	-387.011719
7622.160517	3.266729	35.934021	0.082084
7623.210588	3.266672	170.117187	-17.480469
7623.212590	3.267653	170.117187	-17.480469
7623.214590	3.267211	170.117187	-17.480469
7623.216594	3.267123	35.938354	0.088202
7624.236647	3.265501	5.859375	-385.839844
7624.238646	3.267012	5.859375	-385.839844
7624.240646	3.266845	5.859375	-385.839844
7624.242646	3.266588	35.932472	0.083846
7625.291642	3.265412	169.824219	-17.675781
7625.293646	3.267355	169.824219	-17.675781
7625.295646	3.267168	169.824219	-17.675781
7625.297644	3.267053	35.937584	0.089386
7626.317713	3.266584	3.710937	-386.914062
7626.319716	3.267123	3.710937	-386.914062
7626.321715	3.266846	3.710937	-386.914062
7626.323715	3.266823	35.935051	0.084151
7627.377736	3.267535	170.410156	-17.382812
7627.379738	3.267360	170.410156	-17.382812
7627.381737	3.267169	35.938862	0.088962
7628.401775	3.266822	3.125000	-384.765625
7628.403777	3.267157	3.125000	-384.765625
7628.405778	3.266874	3.125000	-384.765625
7628.409777	3.266777	35.934544	0.189254
7629.455795	3.264082	171.191406	-17.089844
7629.457797	3.266968	171.191406	-17.089844
7629.459799	3.267219	171.191406	-17.089844
7629.461798	3.266778	171.191406	-17.089844
7629.463798	3.266799	35.934795	0.089538
7630.485837	3.267087	3.515625	-381.640625
7630.487843	3.266743	3.515625	-381.640625
7630.489848	3.266701	35.933712	0.083116
7631.540434	3.265617	169.824219	-17.089844
7631.542435	3.267040	169.824219	-17.089844
7631.544435	3.266793	169.824219	-17.089844
7631.546434	3.266658	35.933243	0.088743
7632.570501	3.267610	3.710937	-378.417969
7632.572502	3.267344	3.710937	-378.417969
7632.574504	3.267116	35.938278	0.082434
7633.623481	3.266263	170.214844	-16.796875
7633.625481	3.267497	170.214844	-16.796875
7633.627482	3.267488	170.214844	-16.796875
7633.629481	3.267044	35.937489	0.088842
7634.647498	3.264257	2.246094	-376.855469
7634.651497	3.267150	2.246094	-376.855469
7634.653499	3.266900	2.246094	-376.855469
7634.655499	3.266729	35.934021	0.087714
7635.705578	3.265792	170.214844	-16.894531
7635.707583	3.265958	170.214844	-16.894531
7635.709581	3.266942	170.214844	-16.894531
7635.711583	3.266906	35.935970	0.088301
7636.735669	2.126742	-0.195312	-375.390625
7636.737670	3.267260	-0.195312	-375.390625
7636.739669	3.266957	-0.195312	-375.390625
7636.741669	3.266888	35.935768	0.241117
7637.787783	3.265782	171.191406	-16.210937
7637.789784	3.267351	171.191406	-16.210937
7637.791785	3.267091	171.191406	-16.210937
7637.793785	3.266899	35.935894	0.087226
7638.817844	3.266633	2.636719	-370.507812
7638.819846	3.267070	2.636719	-370.507812
7638.821845	3.266848	2.636719	-370.507812
7638.823845	3.266612	35.932728	0.087636
7639.869861	3.265795	169.433594	-16.601562
7639.871863	3.266977	169.433594	-16.601562
7639.873865	3.266634	169.433594	-16.601562
7639.875863	3.266499	35.931488	0.087086
7640.901920	3.264930	3.222656	-367.285156
7640.903922	3.266866	3.222656	-367.285156
7640.907919	3.266566	3.222656	-367.285156
7640.909922	3.266545	35.931992	0.085973
7641.951960	3.266899	171.484375	-16.113281
7641.953962	3.267246	171.484375	-16.113281
7641.955963	3.266923	171.484375	-16.113281
7641.957962	3.266877	35.935650	0.260008
7642.986033	3.267317	3.222656	-366.015625
7642.988035	3.267169	3.222656	-366.015625
7642.990036	3.267190	35.939091	0.088025
7644.036106	3.267081	170.410156	-15.917969
7644.040106	3.266577	170.410156	-15.917969
7644.042109	3.266661	35.933266	0.086623
7645.072170	3.267227	4.296875	-364.062500
7645.074170	3.267153	4.296875	-364.062500
7645.076173	3.266844	35.935280	0.373502
7646.116237	3.266753	174.414062	-14.941406
7646.118237	3.267261	174.414062	-14.941406
7646.120237	3.267057	174.414062	-14.941406
7646.122237	3.266926	35.936184	0.085270
7647.152813	3.264531	7.421875	-361.425781
7647.154813	3.266851	7.421875	-361.425781
7647.156813	3.266854	7.421875	-361.425781
7647.158813	3.266513	35.931648	0.087175
7648.196865	3.265152	176.660156	-14.257812
7648.198868	3.267246	176.660156	-14.257812
7648.200870	3.267215	176.660156	-14.257812
7648.202871	3.266916	35.936081	0.087147
7649.234919	3.266111	10.253906	-358.789062
7649.236924	3.267088	10.253906	-358.789062
7649.240923	3.266721	10.253906	-358.789062
7649.244920	3.266675	35.933426	0.090190
7650.279526	3.265468	173.242187	-15.039062
7650.281527	3.267002	173.242187	-15.039062
7650.283529	3.266728	173.242187	-15.039062
7650.287527	3.266534	35.931870	0.088241
7651.317550	2.350524	8.496094	-359.667969
7651.319552	3.266935	8.496094	-359.667969
7651.323550	3.266634	8.496094	-359.667969
7651.325551	3.266537	35.931904	0.087887
7652.361602	3.263950	174.121094	-14.843750
7652.363603	3.267027	174.121094	-14.843750
7652.365605	3.267205	174.121094	-14.843750
7652.367603	3.266946	174.121094	-14.843750
7652.369605	3.266832	35.935146	0.086137
7653.399621	3.264549	9.570312	-358.203125
7653.401622	3.267097	9.570312	-358.203125
7653.403622	3.267139	9.570312	-358.203125
7653.405622	3.266866	35.935528	0.090813
7654.443635	3.264454	178.417969	-13.769531
7654.445638	3.266864	178.417969	-13.769531
7654.447637	3.266965	178.417969	-13.769531
7654.449637	3.266935	35.936279	0.089087
7655.485643	3.267329	8.203125	-358.593750
7655.487643	3.266926	8.203125	-358.593750
7655.489644	3.266885	35.935734	0.085555
7656.525693	3.263846	174.609375	-15.039062
7656.527691	3.266820	174.609375	-15.039062
7656.529690	3.267106	174.609375	-15.039062
7656.531693	3.266729	174.609375	-15.039062
7656.535690	3.266699	35.933685	0.088216
7657.565767	3.264580	9.570312	-356.738281
7657.567769	3.267199	9.570312	-356.738281
7657.569769	3.267217	9.570312	-356.738281
7657.571769	3.266860	35.935467	0.088149
7658.607810	3.263404	175.878906	-14.648437
7658.609812	3.266946	175.878906	-14.648437
7658.611812	3.267307	175.878906	-14.648437
7658.613813	3.266961	175.878906	-14.648437
7658.615810	3.266887	35.935760	0.090360
7659.651846	3.266895	8.789062	-356.054687
7659.653848	3.266804	8.789062	-356.054687
7659.655848	3.266561	35.932167	0.087900
7660.693902	3.266870	179.785156	-14.355469
7660.695905	3.267490	179.785156	-14.355469
7660.697904	3.267143	179.785156	-14.355469
7660.701904	3.267002	35.937019	0.087849
7661.729956	3.264733	9.863281	-354.003906
7661.731957	3.267080	9.863281	-354.003906
7661.733958	3.267036	9.863281	-354.003906
7661.735956	3.266786	35.934643	0.090690
7662.776009	3.267168	176.757812	-14.941406
7662.778011	3.267193	176.757812	-14.941406
7662.780011	3.266807	35.934879	0.089599
7663.814045	3.264002	9.765625	-352.441406
7663.816047	3.266945	9.765625	-352.441406
7663.818048	3.267106	9.765625	-352.441406
7663.820047	3.266836	9.765625	-352.441406
7663.822046	3.266787	35.934662	0.088294
7664.860063	3.267298	179.589844	-14.648437
7664.864064	3.266906	179.589844	-14.648437
7664.866065	3.266725	35.933979	0.086373
7665.898590	3.267188	11.718750	-349.511719
7665.900590	3.267015	11.718750	-349.511719
7665.902592	3.266800	35.934803	0.086941
7666.943184	3.266716	178.222656	-15.429687
7666.945191	3.267132	178.222656	-15.429687
7666.949194	3.266617	178.222656	-15.429687
7666.951195	3.266586	35.932446	0.275154
7667.979712	3.266226	7.714844	-350.781250
7667.981715	3.267328	7.714844	-350.781250
7667.983714	3.266975	7.714844	-350.781250
7667.987712	3.266870	35.935574	0.088822
7669.023750	3.265356	180.273437	-15.625000
7669.025753	3.267008	180.273437	-15.625000
7669.027751	3.267043	180.273437	-15.625000
7669.029754	3.266589	35.932480	0.087890
7670.059745	3.264665	7.617187	-348.925781
7670.061747	3.264772	7.617187	-348.925781
7670.063747	3.266840	7.617187	-348.925781
7670.065747	3.266614	35.932755	0.090832
7671.109749	3.265480	176.074219	-16.992187
7671.111749	3.267001	176.074219	-16.992187
7671.115747	3.266603	176.074219	-16.992187
7671.117749	3.266542	35.931969	0.086704
7672.143790	3.265493	9.375000	-346.582031
7672.145794	3.267284	9.375000	-346.582031
7672.147792	3.267124	9.375000	-346.582031
7672.149792	3.266898	35.935875	0.086096
7673.191807	3.265045	180.078125	-16.503906
7673.195807	3.266778	180.078125	-16.503906
7673.197809	3.266546	180.078125	-16.503906
7673.199809	3.266511	35.931622	0.090001
7674.225925	3.265970	5.566406	-347.753906
7674.227927	3.267325	5.566406	-347.753906
7674.229927	3.267076	5.566406	-347.753906
7674.231927	3.266931	35.936237	0.087097
7675.275970	3.266172	177.148437	-17.773437
7675.277971	3.266943	177.148437	-17.773437
7675.279969	3.266540	177.148437	-17.773437
7675.281970	3.266496	35.931454	0.087426
7676.310010	3.267536	6.054687	-348.339844
7676.312013	3.267231	6.054687	-348.339844
7676.314012	3.267042	35.937462	0.085794
7677.360599	3.266964	174.902344	-18.554687
7677.364603	3.266707	174.902344	-18.554687
7677.368602	3.266783	174.902344	-18.554687
7677.370602	3.266746	35.934208	0.459277
7678.392610	3.267183	2.832031	-350.976562
7678.394612	3.266849	2.832031	-350.976562
7678.396613	3.266836	35.935192	0.364359
7679.444690	3.267391	175.878906	-18.750000
7679.446691	3.267044	175.878906	-18.750000
7679.448692	3.266854	35.935394	0.086547
7680.469179	3.265764	3.710937	-351.660156
7680.471181	3.267201	3.710937	-351.660156
7680.473180	3.266965	3.710937	-351.660156
7680.475181	3.266747	35.934216	0.089093
7681.525278	3.266590	180.371094	-18.652344
7681.527280	3.267061	180.371094	-18.652344
7681.529281	3.266733	180.371094	-18.652344
7681.531281	3.266593	35.932526	0.134273
7682.555871	3.267189	4.492187	-351.855469
7682.557867	3.267254	4.492187	-351.855469
7682.559868	3.266869	35.935555	0.088428
7683.608428	3.265954	181.835937	-18.554687
7683.610430	3.267133	181.835937	-18.554687
7683.612431	3.266819	181.835937	-18.554687
7683.614430	3.266690	35.933594	0.088050
7684.636468	3.266687	3.027344	-353.906250
7684.638469	3.267408	3.027344	-353.906250
7684.640471	3.266928	3.027344	-353.906250
7684.642470	3.266987	35.936859	0.088418
7685.692506	3.266131	177.832031	-20.019531
7685.694508	3.267131	177.832031	-20.019531
7685.696508	3.266778	177.832031	-20.019531
7685.698509	3.266714	35.933853	0.089085
7686.718566	3.266573	4.882812	-353.515625
7686.720569	3.266978	4.882812	-353.515625
7686.722569	3.266600	4.882812	-353.515625
7686.724568	3.266661	35.933266	0.175436
7687.774598	3.266069	180.566406	-20.019531
7687.776600	3.267198	180.566406	-20.019531
7687.778600	3.266898	180.566406	-20.019531
7687.780599	3.266747	35.934216	0.090095
7688.804640	3.267084	6.738281	-353.222656
7688.806643	3.266774	6.738281	-353.222656
7688.808642	3.266686	35.933544	0.352959
7689.859231	3.267194	184.472656	-19.628906
7689.861233	3.267090	184.472656	-19.628906
7689.863232	3.266864	35.935501	0.089493
7690.885247	3.266973	7.031250	-352.441406
7690.887249	3.267397	7.031250	-352.441406
7690.889251	3.267051	7.031250	-352.441406
7690.893247	3.266941	35.936352	0.087625
7691.939839	3.266566	184.765625	-20.019531
7691.941842	3.267061	184.765625	-20.019531
7691.943842	3.266673	184.765625	-20.019531
7691.945840	3.266650	35.933155	0.091247
7692.967847	3.266423	8.105469	-351.660156
7692.969850	3.266972	8.105469	-351.660156
7692.971848	3.266595	8.105469	-351.660156
7692.973849	3.266524	35.931763	0.084417
7694.022782	3.265700	184.667969	-20.410156
7694.024783	3.267150	184.667969	-20.410156
7694.026783	3.266987	184.667969	-20.410156
7694.028783	3.266759	35.934349	0.091555
7695.051410	2.771607	4.003906	-353.222656
7695.053410	3.266862	4.003906	-353.222656
7695.055412	3.266624	35.932869	0.085619
7696.107463	3.267016	180.664062	-21.484375
7696.109462	3.266892	180.664062	-21.484375
7696.111463	3.266690	35.933586	0.089600
7697.133517	3.266142	8.691406	-350.195312
7697.135520	3.267114	8.691406	-350.195312
7697.137518	3.266832	8.691406	-350.195312
7697.139519	3.266736	35.934093	0.087302
7698.188480	3.266846	184.863281	-21.093750
7698.190480	3.267138	184.863281	-21.093750
7698.192481	3.266874	184.863281	-21.093750
7698.194480	3.266799	35.934795	0.092756
7699.213051	3.263258	7.324219	-350.390625
7699.217052	3.267086	7.324219	-350.390625
7699.219052	3.266667	7.324219	-350.390625
7699.221053	3.266583	35.932419	0.088709
7700.271210	3.266618	183.007812	-21.386719
7700.273210	3.267632	183.007812	-21.386719
7700.275211	3.267555	183.007812	-21.386719
7700.277211	3.267062	35.937683	0.089120
7701.297239	3.265702	7.519531	-347.949219
7701.299241	3.267322	7.519531	-347.949219
7701.301242	3.267154	7.519531	-347.949219
7701.303239	3.266870	35.935574	0.089030
7702.353301	3.265291	185.449219	-21.484375
7702.355304	3.267197	185.449219	-21.484375
7702.357306	3.267059	185.449219	-21.484375
7702.359306	3.266775	35.934525	0.091742
7703.383341	3.267189	9.570312	-346.289062
7703.385341	3.267126	9.570312	-346.289062
7703.387340	3.266874	35.935616	0.085719
7704.439355	3.267141	181.054687	-22.265625
7704.441357	3.266749	181.054687	-22.265625
7704.443357	3.266620	35.932823	0.193382
7705.463400	3.266616	7.617187	-346.679687
7705.465402	3.267663	7.617187	-346.679687
7705.467403	3.267181	7.617187	-346.679687
7705.469401	3.267091	35.938000	0.088242
7706.519444	3.266082	181.835937	-22.363281
7706.521446	3.267244	181.835937	-22.363281
7706.523446	3.267234	181.835937	-22.363281
7706.525447	3.266773	35.934502	0.089886
7707.545468	3.265476	5.664062	-345.117187
7707.547468	3.267358	5.664062	-345.117187
7707.549468	3.267301	5.664062	-345.117187
7707.551468	3.267028	35.937309	0.086991
7708.603534	3.267192	182.031250	-22.558594
7708.605538	3.266957	182.031250	-22.558594
7708.607537	3.266791	35.934696	0.093160
7709.628081	3.266551	5.761719	-343.164062
7709.630083	3.267423	5.761719	-343.164062
7709.632084	3.267105	5.761719	-343.164062
7709.634083	3.266932	35.936249	0.088117
7710.686147	3.266977	186.816406	-21.289062
7710.688144	3.267078	186.816406	-21.289062
7710.690145	3.266870	186.816406	-21.289062
7710.692144	3.266822	35.935040	0.093653
7711.713101	3.267362	8.007812	-340.820312
7711.715102	3.267002	8.007812	-340.820312
7711.717103	3.266911	35.936016	0.085755
7712.765677	3.265746	185.546875	-21.386719
7712.769681	3.266845	185.546875	-21.386719
7712.771683	3.266636	185.546875	-21.386719
7712.775680	3.266640	35.933041	0.092346
7713.795691	3.267302	5.859375	-339.257812
7713.797693	3.266878	5.859375	-339.257812
7713.801691	3.266745	35.934189	0.088653
7714.851723	3.266721	185.449219	-21.582031
7714.853725	3.267409	185.449219	-21.582031
7714.857723	3.266948	185.449219	-21.582031
7714.859726	3.266870	35.935574	0.088989
